# 1530:1555:0.1
# medium Gain
wavelength voltage power
1529.500000	0.025137	0.000310
1529.525000	0.025286	0.000312
1529.550000	0.025687	0.000317
1529.575000	0.025992	0.000321
1529.600000	0.026014	0.000321
1529.625000	0.026239	0.000324
1529.650000	0.026513	0.000327
1529.675000	0.026807	0.000331
1529.700000	0.027050	0.000334
1529.725000	0.027114	0.000335
1529.750000	0.027496	0.000339
1529.775000	0.027823	0.000343
1529.800000	0.028196	0.000348
1529.825000	0.028542	0.000352
1529.850000	0.028687	0.000354
1529.875000	0.028901	0.000357
1529.900000	0.028995	0.000358
1529.925000	0.029400	0.000363
1529.950000	0.029654	0.000366
1529.975000	0.029913	0.000369
1530.000000	0.030187	0.000373
1530.025000	0.030673	0.000379
1530.050000	0.031074	0.000384
1530.075000	0.031404	0.000388
1530.100000	0.031754	0.000392
1530.125000	0.032035	0.000395
1530.150000	0.032356	0.000399
1530.175000	0.032689	0.000403
1530.200000	0.033121	0.000409
1530.225000	0.033632	0.000415
1530.250000	0.034069	0.000420
1530.275000	0.034609	0.000427
1530.300000	0.035070	0.000433
1530.325000	0.035467	0.000438
1530.350000	0.035884	0.000443
1530.375000	0.036345	0.000449
1530.400000	0.036907	0.000456
1530.425000	0.037349	0.000461
1530.450000	0.037727	0.000466
1530.475000	0.038189	0.000471
1530.500000	0.038742	0.000478
1530.525000	0.039150	0.000483
1530.550000	0.040080	0.000495
1530.575000	0.040255	0.000497
1530.600000	0.041001	0.000506
1530.625000	0.041643	0.000514
1530.650000	0.042295	0.000522
1530.675000	0.042984	0.000531
1530.700000	0.043800	0.000541
1530.725000	0.044551	0.000550
1530.750000	0.045519	0.000562
1530.775000	0.046384	0.000573
1530.800000	0.047182	0.000582
1530.825000	0.048216	0.000595
1530.850000	0.048869	0.000603
1530.875000	0.049664	0.000613
1530.900000	0.050369	0.000622
1530.925000	0.050806	0.000627
1530.950000	0.051408	0.000635
1530.975000	0.052528	0.000648
1531.000000	0.053570	0.000661
1531.025000	0.054742	0.000676
1531.050000	0.056185	0.000694
1531.075000	0.057765	0.000713
1531.100000	0.059255	0.000732
1531.125000	0.061042	0.000754
1531.150000	0.062776	0.000775
1531.175000	0.064406	0.000795
1531.200000	0.066251	0.000818
1531.225000	0.068114	0.000841
1531.250000	0.070723	0.000873
1531.275000	0.071483	0.000883
1531.300000	0.073726	0.000910
1531.325000	0.074900	0.000925
1531.350000	0.076604	0.000946
1531.375000	0.078896	0.000974
1531.400000	0.081086	0.001001
1531.425000	0.083615	0.001033
1531.450000	0.086890	0.001073
1531.475000	0.090145	0.001113
1531.500000	0.093420	0.001154
1531.525000	0.096756	0.001195
1531.550000	0.100597	0.001242
1531.575000	0.104546	0.001291
1531.600000	0.109934	0.001358
1531.625000	0.112701	0.001392
1531.650000	0.118273	0.001461
1531.675000	0.122340	0.001511
1531.700000	0.127265	0.001572
1531.725000	0.132619	0.001638
1531.750000	0.137848	0.001702
1531.775000	0.144052	0.001779
1531.800000	0.151467	0.001871
1531.825000	0.159741	0.001973
1531.850000	0.167333	0.002066
1531.875000	0.176178	0.002176
1531.900000	0.187687	0.002318
1531.925000	0.224218	0.002769
1531.950000	0.243329	0.003005
1531.975000	0.242966	0.003000
1532.000000	0.235519	0.002908
1532.025000	0.255948	0.003161
1532.050000	0.273140	0.003373
1532.075000	0.291848	0.003604
1532.100000	0.310723	0.003837
1532.125000	0.332679	0.004108
1532.150000	0.356832	0.004407
1532.175000	0.389041	0.004804
1532.200000	0.417747	0.005159
1532.225000	0.452910	0.005593
1532.250000	0.556935	0.006878
1532.275000	0.610321	0.007537
1532.300000	0.600842	0.007422
1532.325000	0.631712	0.007804
1532.350000	0.707750	0.008743
1532.375000	0.779004	0.009623
1532.400000	0.866320	0.010702
1532.425000	0.950926	0.011747
1532.450000	1.058067	0.013070
1532.475000	1.168779	0.014438
1532.500000	1.292043	0.015961
1532.525000	1.422647	0.017574
1532.550000	1.549888	0.019146
1532.575000	1.656000	0.020457
1532.600000	1.899040	0.023459
1532.625000	1.877576	0.023194
1532.650000	1.887342	0.023314
1532.675000	1.894559	0.023404
1532.700000	1.887371	0.023315
1532.725000	1.844247	0.022782
1532.750000	1.761380	0.021758
1532.775000	1.661363	0.020523
1532.800000	1.540958	0.019036
1532.825000	1.417183	0.017507
1532.850000	1.298888	0.016045
1532.875000	1.181690	0.014597
1532.900000	1.076917	0.013303
1532.925000	0.873388	0.010789
1532.950000	0.713201	0.008810
1532.975000	0.703508	0.008690
1533.000000	0.670365	0.008281
1533.025000	0.654777	0.008088
1533.050000	0.606939	0.007498
1533.075000	0.556782	0.006878
1533.100000	0.512376	0.006329
1533.125000	0.470817	0.005816
1533.150000	0.434797	0.005371
1533.175000	0.404266	0.004994
1533.200000	0.376926	0.004656
1533.225000	0.347825	0.004297
1533.250000	0.325051	0.004015
1533.275000	0.294412	0.003637
1533.300000	0.257357	0.003180
1533.325000	0.252202	0.003116
1533.350000	0.258152	0.003190
1533.375000	0.240720	0.002975
1533.400000	0.227701	0.002814
1533.425000	0.215710	0.002665
1533.450000	0.203021	0.002509
1533.475000	0.192885	0.002383
1533.500000	0.183091	0.002262
1533.525000	0.174860	0.002161
1533.550000	0.166325	0.002055
1533.575000	0.159087	0.001966
1533.600000	0.141566	0.001749
1533.625000	0.132943	0.001643
1533.650000	0.124639	0.001540
1533.675000	0.126041	0.001557
1533.700000	0.128393	0.001587
1533.725000	0.123444	0.001525
1533.750000	0.119210	0.001473
1533.775000	0.114948	0.001420
1533.800000	0.110559	0.001366
1533.825000	0.106547	0.001317
1533.850000	0.103098	0.001274
1533.875000	0.099891	0.001234
1533.900000	0.096752	0.001196
1533.925000	0.093881	0.001160
1533.950000	0.088459	0.001093
1533.975000	0.082853	0.001024
1534.000000	0.084881	0.001049
1534.025000	0.084681	0.001046
1534.050000	0.081142	0.001003
1534.075000	0.078471	0.000970
1534.100000	0.076540	0.000946
1534.125000	0.074717	0.000923
1534.150000	0.072294	0.000893
1534.175000	0.070286	0.000869
1534.200000	0.068641	0.000848
1534.225000	0.067073	0.000829
1534.250000	0.066112	0.000817
1534.275000	0.064780	0.000800
1534.300000	0.061255	0.000757
1534.325000	0.059474	0.000735
1534.350000	0.057554	0.000711
1534.375000	0.058452	0.000723
1534.400000	0.058607	0.000724
1534.425000	0.057234	0.000707
1534.450000	0.056309	0.000696
1534.475000	0.054950	0.000679
1534.500000	0.053226	0.000658
1534.525000	0.052260	0.000646
1534.550000	0.051252	0.000634
1534.575000	0.050438	0.000623
1534.600000	0.049892	0.000617
1534.625000	0.048047	0.000594
1534.650000	0.046998	0.000581
1534.675000	0.047180	0.000583
1534.700000	0.046646	0.000577
1534.725000	0.046937	0.000580
1534.750000	0.045900	0.000567
1534.775000	0.044925	0.000555
1534.800000	0.044683	0.000552
1534.825000	0.044178	0.000546
1534.850000	0.043254	0.000535
1534.875000	0.042492	0.000525
1534.900000	0.041396	0.000512
1534.925000	0.040653	0.000502
1534.950000	0.040265	0.000498
1534.975000	0.039292	0.000486
1535.000000	0.039403	0.000487
1535.025000	0.038988	0.000482
1535.050000	0.038895	0.000481
1535.075000	0.038896	0.000481
1535.100000	0.038387	0.000474
1535.125000	0.037966	0.000469
1535.150000	0.037803	0.000467
1535.175000	0.037559	0.000464
1535.200000	0.037159	0.000459
1535.225000	0.036790	0.000455
1535.250000	0.036421	0.000450
1535.275000	0.036015	0.000445
1535.300000	0.035316	0.000437
1535.325000	0.034031	0.000421
1535.350000	0.034149	0.000422
1535.375000	0.032987	0.000408
1535.400000	0.033880	0.000419
1535.425000	0.033786	0.000418
1535.450000	0.033451	0.000414
1535.475000	0.033397	0.000413
1535.500000	0.033258	0.000411
